\DATE= 'Tue Aug 20 15:37:35 2013'
\APERNAME= 'LL2'
\BUNIT= 'MJy/sr'
\CAL_SET= 'irs_2007_02_12-pb-pfc-trim-omeg-lhbiasfork.cal'
\SOFTWARE= 'CUBISM'
\SOFT_VER= 'v1.50 (June-2007)'
\FILENAME= 'm31_isocvf_ll_ll2_cube__fits__LL2_sp.tbl'
\ COMMENT This file contains a spectral extraction created from
\ COMMENT an IRS spectral mapping dataset.
\ Extraction Area:
\ # Poly: 00:40:59.401,+40:36:48.32 ; 00:40:57.436,+40:36:26.23
\ #       00:41:00.517,+40:35:50.68 ; 00:41:02.483,+40:36:12.77
|   WAVELENGTH    |      FLUX       | FLUX_UNCERTAINTY |
|      real       |      real       |       real       |
|       um        |     MJy/sr      |      MJy/sr      |
         14.26661          1.128848         0.06110671
         14.35830         0.8259471         0.07446554
         14.45000         0.7071853         0.06374990
         14.54169         0.6410316         0.06180058
         14.63338         0.6529014         0.06377176
         14.72508         0.7462606         0.06750720
         14.81677         0.6626258         0.06618869
         14.90846         0.3361995         0.06271824
         15.00015         0.4487474         0.06027858
         15.09185         0.6208154         0.05682466
         15.18354         0.6481558          0.2837596
         15.27523         0.2473874         0.06259359
         15.36693       -0.04194674         0.07370065
         15.45862         0.6870283         0.05893394
         15.55031         0.8695000         0.05727005
         15.64200         0.8273759         0.05668062
         15.73370         0.7687618         0.06161635
         15.82539         0.5856974         0.06215296
         15.91708         0.8643348         0.06624448
         16.00878         0.6124367         0.07236770
         16.10047         0.4189723         0.06905045
         16.19216         0.7504604         0.07367031
         16.28386          1.305656         0.07326084
         16.37555          1.622137         0.08701830
         16.46724          1.412818         0.07314192
         16.55893         0.9855710         0.07369611
         16.65063          1.348519         0.07126170
         16.74232          1.315007         0.06794033
         16.83401         0.9745494          0.2328960
         16.92570          1.974374         0.07403965
         17.01740          2.179104         0.07082953
         17.10909          1.635812         0.07075344
         17.20078          1.365324         0.06674368
         17.29248          1.540653         0.06939591
         17.38417          1.418468         0.06806931
         17.47586          1.263022         0.06907712
         17.56756          1.180069         0.05920995
         17.65925          1.123224         0.06269483
         17.75094         0.9013149         0.06175633
         17.84263         0.9107231         0.07262767
         17.93433         0.9310384         0.06781793
         18.02602         0.8263937         0.06778536
         18.11771         0.6071707         0.06603891
         18.20941         0.8008078         0.07047508
         18.30110         0.5885387         0.06759803
         18.39279          1.131791         0.06498443
         18.48449         0.3218337         0.06758235
         18.57618         0.7541615         0.07545578
         18.66787          1.837723          0.1777042
         18.75956          1.436302         0.07469070
         18.85126         0.5424076         0.07562124
         18.94295         0.5163456         0.08576023
         19.03464         0.7422408         0.08118709
         19.12634         0.9298027         0.09247013
         19.21803         0.7518453         0.09671191
         19.30972         0.6934860          0.1051102
         19.40141         0.9622716          0.1089839
         19.49311         0.4705143          0.1074583
         19.58480         0.2638150          0.1277168
         19.67649         0.3718060          0.1244809
         19.76819         0.8650965          0.1295021
         19.85988          1.019383          0.1351106
         19.95157         0.9900463          0.1052902
         20.04326         0.6058391          0.1287833
         20.13496         0.8033936          0.1137712
         20.22665          1.326556          0.1546580
         20.31834          1.149210          0.1286169
         20.41004         0.9280338          0.1080316
         20.50173         0.7392738          0.1138983
         20.59342         0.9391524          0.1040794
         20.68512          1.229277          0.1200830
         20.77681         0.7706187          0.1225995
         20.86850         0.9605200          0.1365403
         20.96019         0.5723102          0.1222317
         21.05189         0.8256705          0.1447078
