\DATE= 'Thu Nov  7 19:50:16 2013'
\APERNAME= 'LL2'
\BUNIT= 'MJy/sr'
\CAL_SET= 'irs_2007_02_12-pb-pfc-trim-omeg-lhbiasfork.cal'
\SOFTWARE= 'CUBISM'
\SOFT_VER= 'v1.50 (June-2007)'
\FILENAME= 'm31nuc_ll_ll2_cube__fits__LL2_sp.tbl'
\ COMMENT This file contains a spectral extraction created from
\ COMMENT an IRS spectral mapping dataset.
\ Extraction Area:
\ # Poly: 00:42:43.712,+41:16:37.45 ; 00:42:41.722,+41:16:15.41
\ #       00:42:44.825,+41:15:39.77 ; 00:42:46.816,+41:16:01.80
|   WAVELENGTH    |      FLUX       | FLUX_UNCERTAINTY |
|      real       |      real       |       real       |
|       um        |     MJy/sr      |      MJy/sr      |
         14.26661          14.09553         0.08579092
         14.35830          13.83856          0.2481452
         14.45000          12.85302         0.08567170
         14.54169          13.29468          0.1078974
         14.63338          13.19691         0.08297706
         14.72508          13.24923         0.08690148
         14.81677          12.83043         0.08746800
         14.90846          12.96144         0.08190120
         15.00015          12.78750         0.07892209
         15.09185          12.48558         0.07701600
         15.18354          12.73798         0.08146733
         15.27523          12.75410         0.07941397
         15.36693          12.46030         0.08169486
         15.45862          15.56089         0.08092968
         15.55031          18.49307         0.08161637
         15.64200          14.62531         0.07512221
         15.73370          12.71585         0.07560827
         15.82539          12.57771         0.08273825
         15.91708          12.80331         0.08808217
         16.00878          12.58195         0.09124506
         16.10047          12.39262         0.08947077
         16.19216          12.83307          0.1030512
         16.28386          13.09938         0.09397566
         16.37555          13.09424          0.1012528
         16.46724          12.83437         0.09205198
         16.55893          12.74350         0.09700735
         16.65063          13.18903         0.09119768
         16.74232          13.15611         0.09533583
         16.83401          13.24764         0.09763132
         16.92570          13.57441         0.08695929
         17.01740          13.32422         0.08470801
         17.10909          13.13439         0.08257689
         17.20078          12.87027         0.08084036
         17.29248          12.99364         0.08488916
         17.38417          12.92494         0.08380693
         17.47586          12.97507         0.08609603
         17.56756          12.74792         0.07658758
         17.65925          12.73951         0.07915900
         17.75094          12.60656         0.07831929
         17.84263          12.32639         0.08185039
         17.93433          12.39251         0.08365984
         18.02602          12.64482         0.08530339
         18.11771          11.93270         0.08078855
         18.20941          11.99190         0.08494172
         18.30110          12.38381         0.09243273
         18.39279          12.52315         0.08019510
         18.48449          11.74430         0.08312473
         18.57618          12.43327          0.1040407
         18.66787          14.90404         0.08839406
         18.75956          13.97988          0.1064689
         18.85126          11.97537         0.09499601
         18.94295          11.62101         0.09821311
         19.03464          11.41068          0.1094370
         19.12634          12.34102          0.1123010
         19.21803          11.75886          0.1195389
         19.30972          11.89287          0.1189986
         19.40141          11.74624          0.1325979
         19.49311          11.69341          0.1393861
         19.58480          10.73749          0.1451327
         19.67649          11.24777          0.1487359
         19.76819          11.17747          0.1451025
         19.85988          11.00303          0.1420891
         19.95157          11.04436          0.1258086
         20.04326          10.57198          0.1304361
         20.13496          10.59284          0.1213666
         20.22665          10.81000          0.1273667
         20.31834          11.14012          0.3053555
         20.41004          10.40896          0.1182873
         20.50173          10.00230          0.1372766
         20.59342          10.38173          0.1195408
         20.68512          10.44704          0.1413763
         20.77681          10.27611          0.1408829
         20.86850          9.779779          0.1514223
         20.96019          9.543750          0.1466042
         21.05189          9.266732          0.1602596
