\DATE= 'Mon Mar 17 20:46:03 2014'
\APERNAME= 'SL2'
\BUNIT= 'MJy/sr'
\CAL_SET= 'irs_2008_04_25-pb-pfc-trim-omeg-lhllbiasfork.cal'
\SOFTWARE= 'CUBISM'
\SOFT_VER= 'v1.6 (Nov-2008)'
\FILENAME= 'm31nuc_sl2_nucCentre.tbl'
\ COMMENT This file contains a spectral extraction created from
\ COMMENT an IRS spectral mapping dataset.
\ Extraction Area:
\ # Poly: 00:42:44.274,+41:16:15.15 ; 00:42:43.689,+41:16:08.67
\ #       00:42:44.264,+41:16:02.07 ; 00:42:44.849,+41:16:08.55
|   WAVELENGTH    |      FLUX       | FLUX_UNCERTAINTY |
|      real       |      real       |       real       |
|       um        |     MJy/sr      |      MJy/sr      |
         5.242817          85.70223           2.142201
         5.273802          84.62791           2.313001
         5.304788          84.86194           1.882323
         5.335773          84.51893           1.961692
         5.366758          81.56509           1.734671
         5.397744          81.04048           1.860612
         5.428729          77.64565           1.546747
         5.459714          80.27489           1.299849
         5.490700          78.27090           1.310493
         5.521685          77.37685           1.136295
         5.552670          74.69268           1.291798
         5.583656          76.62830           1.369679
         5.614641          74.75078           1.263813
         5.645627          77.49607           1.220585
         5.676612          77.56216           1.077743
         5.707598          73.15182           1.179705
         5.738583          73.57776           1.300395
         5.769568          76.71204           1.343772
         5.800553          77.24289           1.398502
         5.831539          75.25033           1.407402
         5.862525          77.41033           1.337296
         5.893510          73.13027           2.190007
         5.924495          76.59869           1.743047
         5.955481          76.52142           1.713536
         5.986466          75.46776           1.945138
         6.017451          77.38686           1.649210
         6.048437          72.37328           1.506693
         6.079422          76.59988           1.460651
         6.110407          75.62258           1.267070
         6.141393          74.79233           1.420932
         6.172378          75.04346           1.267221
         6.203363          71.00626           1.386877
         6.234349          73.84081           1.138903
         6.265334          70.07356           1.319204
         6.296319          71.88763           1.044509
         6.327305          69.57890           1.318946
         6.358290          71.18475           1.061826
         6.389276          71.87261           1.036631
         6.420261          68.16787           1.098678
         6.451246          62.87436          0.9824840
         6.482232          65.83965           1.258854
         6.513217          65.82755           1.394292
         6.544202          63.46132           1.700246
         6.575188          65.82153           1.699450
         6.606173          65.40990           1.558167
         6.637158          64.07555           1.991242
         6.668144          66.28056           1.755191
         6.699129          63.71447           1.589507
         6.730114          60.62747           1.440435
         6.761100          63.35398           1.583364
         6.792085          63.42805           1.640725
         6.823071          61.50927           1.605730
         6.854056          59.50612           2.246973
         6.885041          59.48846           1.556466
         6.916027          56.06829           1.685696
         6.947012          60.49683           1.547765
         6.977998          58.01919           1.475847
         7.008983          58.32693           1.611210
         7.039968          57.49085           1.481293
         7.070954          55.22245           1.560636
         7.101939          58.73246           1.687090
         7.132924          58.06504           1.596664
         7.163910          56.61315           1.957584
         7.194895          52.93439           1.779620
         7.225881          56.32174           1.876278
         7.256866          47.89258           1.739815
         7.287851          50.71724           2.166920
         7.318837          54.35449           2.184609
         7.349822          52.18254           3.588460
         7.380807          51.50961           2.536967
         7.411793          48.65509           2.258248
         7.442778          54.00676           2.254095
         7.473763          54.07781           2.371821
         7.504749          46.46633           2.911201
         7.535734          50.29312           2.540890
         7.566720          52.00932           2.043500
         7.597705          44.42408           2.257213
