\DATE= 'Mon Mar 17 20:49:22 2014'
\APERNAME= 'LL2'
\BUNIT= 'MJy/sr'
\CAL_SET= 'irs_2007_02_12-pb-pfc-trim-omeg-lhbiasfork.cal'
\SOFTWARE= 'CUBISM'
\SOFT_VER= 'v1.50 (June-2007)'
\FILENAME= 'm31nuc_ll2_nucCentre.tbl'
\ COMMENT This file contains a spectral extraction created from
\ COMMENT an IRS spectral mapping dataset.
\ Extraction Area:
\ # Poly: 00:42:44.274,+41:16:15.15 ; 00:42:43.689,+41:16:08.67
\ #       00:42:44.264,+41:16:02.07 ; 00:42:44.849,+41:16:08.55
|   WAVELENGTH    |      FLUX       | FLUX_UNCERTAINTY |
|      real       |      real       |       real       |
|       um        |     MJy/sr      |      MJy/sr      |
         14.26661          24.39674          0.3440904
         14.35830          23.77869          0.3333107
         14.45000          23.13111          0.3291894
         14.54169          23.13250           1.060431
         14.63338          23.44447          0.3747074
         14.72508          23.50155          0.3730016
         14.81677          22.03898          0.3467562
         14.90846          22.72822          0.3460804
         15.00015          21.66019          0.3269530
         15.09185          21.91081          0.3193485
         15.18354          21.30406          0.3525884
         15.27523          21.69962          0.3285465
         15.36693          19.95045          0.3275581
         15.45862          24.10434          0.3204560
         15.55031          28.17092          0.3286517
         15.64200          23.28033          0.3082038
         15.73370          21.23989          0.3275624
         15.82539          21.42319          0.5075817
         15.91708          21.39094          0.3549165
         16.00878          22.30081          0.3765528
         16.10047          21.63456          0.3854422
         16.19216          22.57627          0.3961550
         16.28386          22.56547          0.3806004
         16.37555          22.30073          0.4330643
         16.46724          21.78611          0.3622880
         16.55893          21.63029          0.3771502
         16.65063          23.48070          0.4186296
         16.74232          22.04008          0.3820954
         16.83401          23.46842          0.3816018
         16.92570          22.67545          0.3749700
         17.01740          21.93597          0.3214411
         17.10909          21.43858          0.3285266
         17.20078          21.75191          0.3281873
         17.29248          21.12554          0.3368167
         17.38417          21.37822          0.3558121
         17.47586          22.26728          0.3750564
         17.56756          21.43306          0.3152627
         17.65925          21.37097          0.3364257
         17.75094          20.98573          0.3322740
         17.84263          20.71489          0.3603052
         17.93433          20.92783          0.3473176
         18.02602          20.95981          0.3409142
         18.11771          20.46242          0.3444172
         18.20941          19.15281          0.3660517
         18.30110          20.48865          0.3492125
         18.39279          21.10268          0.3472049
         18.48449          20.36802          0.3240017
         18.57618          21.85079          0.3888000
         18.66787          23.13542          0.3363969
         18.75956          19.78428          0.5087333
         18.85126          19.97556          0.3607348
         18.94295          19.84110          0.3568562
         19.03464          21.01527          0.4289921
         19.12634          21.61219          0.4428722
         19.21803          20.00805          0.4962038
         19.30972          20.07522          0.4745461
         19.40141          19.67592          0.5472512
         19.49311          19.88321          0.5580150
         19.58480          18.22828          0.5891219
         19.67649          18.09980          0.6506110
         19.76819          20.20065          0.5835585
         19.85988          16.56229          0.5802463
         19.95157          18.46432          0.4899666
         20.04326          17.77314          0.5314387
         20.13496          17.78525          0.4487427
         20.22665          18.03768          0.4672113
         20.31834          17.77323          0.4392265
         20.41004          17.60725          0.4736364
         20.50173          16.56856          0.4491937
         20.59342          17.79723          0.4796705
         20.68512          15.90326          0.5387600
         20.77681          16.44809          0.5125636
         20.86850          15.33737          0.5671524
         20.96019          16.74719          0.5975271
         21.05189          16.13898          0.6214386
