\DATE= 'Mon Mar 17 20:40:11 2014'
\APERNAME= 'SL1'
\BUNIT= 'MJy/sr'
\CAL_SET= 'irs_2008_04_25-pb-pfc-trim-omeg-lhllbiasfork.cal'
\SOFTWARE= 'CUBISM'
\SOFT_VER= 'v1.6 (Nov-2008)'
\FILENAME= 'm31nuc_sl1_nucCentre.tbl'
\ COMMENT This file contains a spectral extraction created from
\ COMMENT an IRS spectral mapping dataset.
\ Extraction Area:
\ # Poly: 00:42:44.274,+41:16:15.15 ; 00:42:43.689,+41:16:08.67
\ #       00:42:44.264,+41:16:02.07 ; 00:42:44.849,+41:16:08.55
|   WAVELENGTH    |      FLUX       | FLUX_UNCERTAINTY |
|      real       |      real       |       real       |
|       um        |     MJy/sr      |      MJy/sr      |
         7.533706          49.14826           1.746363
         7.595799          54.14838           1.499421
         7.657894          52.74818           1.626523
         7.719988          45.93651           1.311229
         7.782082          45.00640           1.374745
         7.844176          46.79204           1.114674
         7.906271          45.44796           1.101380
         7.968365          41.84011           1.120685
         8.030458          41.76599           1.063060
         8.092554          40.35372           1.048198
         8.154648          40.68950          0.8870659
         8.216742          44.09456          0.9875739
         8.278836          43.00929           1.050710
         8.340930          42.77220          0.9847918
         8.403025          41.43437          0.8859583
         8.465118          39.76292           1.189980
         8.527213          40.88762           1.077718
         8.589307          40.82256           1.032694
         8.651402          41.77359           1.092722
         8.713495          41.06560           1.027495
         8.775590          40.12147          0.9426570
         8.837685          40.65034          0.8410614
         8.899778          42.41347          0.7890665
         8.961872          39.43876          0.8660563
         9.023967          42.06889          0.8129714
         9.086061          41.73091          0.8983051
         9.148155          43.14230          0.8478335
         9.210249          40.92857          0.7589532
         9.272344          42.62791          0.7799466
         9.334438          42.89047          0.7004950
         9.396532          44.34028          0.8033782
         9.458626          44.83799          0.7104253
         9.520720          44.46983          0.6789505
         9.582815          45.30823          0.6651590
         9.644909          44.39954          0.6734850
         9.707003          44.61562          0.7225295
         9.769097          44.94789           2.291666
         9.831192          45.09389          0.7138911
         9.893286          43.68452          0.7155232
         9.955380          44.97534          0.8946460
         10.01747          42.94341          0.8465796
         10.07957          43.24001           1.014876
         10.14166          43.81638          0.8343035
         10.20376          43.12141           1.027623
         10.26585          42.46331          0.7380587
         10.32795          41.49333          0.7061694
         10.39004          41.83682          0.7944959
         10.45213          41.23890          0.6793901
         10.51423          41.80597          0.6720757
         10.57632          38.87683          0.7278820
         10.63842          38.27672          0.8548011
         10.70051          40.77570          0.7765905
         10.76260          40.09053          0.6839166
         10.82470          37.61506          0.6308411
         10.88679          39.59122          0.6462505
         10.94889          39.71177          0.6003211
         11.01098          39.69008          0.6927443
         11.07308          38.54766          0.6480811
         11.13517          37.52648          0.7098177
         11.19726          38.88046          0.6739525
         11.25936          38.34501          0.6998441
         11.32145          36.42890          0.8934342
         11.38355          35.26936          0.7720876
         11.44564          36.37370          0.8656812
         11.50774          37.01663          0.8378621
         11.56983          33.78132          0.9005247
         11.63192          35.80252           1.037711
         11.69402          33.96907          0.9496027
         11.75611          32.76192          0.7931311
         11.81821          32.64229          0.6996675
         11.88030          32.17797          0.7159852
         11.94240          32.48190          0.7019600
         12.00449          32.66055          0.8561503
         12.06658          31.26682          0.8395415
         12.12868          32.38651          0.6325176
         12.19077          31.63388          0.6880362
         12.25287          30.63977          0.8153362
         12.31496          30.74404          0.6228778
         12.37705          30.08971          0.6632987
         12.43915          30.82119          0.6642944
         12.50124          29.53084          0.6595247
         12.56334          30.33378          0.6698039
         12.62543          30.90401          0.7903073
         12.68753          29.98850          0.8736835
         12.74962          29.91022          0.7059252
         12.81171          32.23956          0.7631988
         12.87381          30.34534          0.7732018
         12.93590          27.85222          0.7884424
         12.99800          29.64863          0.8475296
         13.06009          28.20274          0.8885201
         13.12218          29.18936          0.8439819
         13.18428          28.98914          0.8835808
         13.24637          26.60051          0.9268152
         13.30847          28.22381          0.7323715
         13.37056          27.43473          0.7383938
         13.43266          25.72624          0.7256114
         13.49475          26.75854          0.7598619
         13.55684          25.73379          0.6537988
         13.61894          27.43780          0.8254536
         13.68103          27.39624          0.6191782
         13.74313          25.99671          0.7462403
         13.80522          28.19539          0.6861537
         13.86732          27.40981          0.7524972
         13.92941          26.04745          0.7522373
         13.99150          27.60326          0.8149070
         14.05360          24.97062          0.9109415
         14.11569          23.56031           1.056636
         14.17779          25.12276           1.047765
         14.23988          27.12565          0.9720747
         14.30198          26.61898           1.049047
         14.36407          24.74458          0.9567214
         14.42616          22.91832           1.078457
         14.48826          23.82158           1.114478
         14.55035          22.04893           1.107205
         14.61245          24.20174          0.9006925
         14.67454          21.15668           1.012082
         14.73664          19.35200          0.7869859
