\DATE= 'Mon Mar 17 20:39:08 2014'
\APERNAME= 'SL1'
\BUNIT= 'MJy/sr'
\CAL_SET= 'irs_2008_04_25-pb-pfc-trim-omeg-lhllbiasfork.cal'
\SOFTWARE= 'CUBISM'
\SOFT_VER= 'v1.6 (Nov-2008)'
\FILENAME= 'm31nuc_sl1_nucUP.tbl'
\ COMMENT This file contains a spectral extraction created from
\ COMMENT an IRS spectral mapping dataset.
\ Extraction Area:
\ # Poly: 00:42:45.300,+41:15:52.80 ; 00:42:44.715,+41:15:46.32
\ #       00:42:45.289,+41:15:39.72 ; 00:42:45.875,+41:15:46.20
|   WAVELENGTH    |      FLUX       | FLUX_UNCERTAINTY |
|      real       |      real       |       real       |
|       um        |     MJy/sr      |      MJy/sr      |
         7.533706          18.10968           1.299414
         7.595799          19.87992           1.200514
         7.657894          19.54158           1.147789
         7.719988          18.48851           1.094766
         7.782082          17.47038          0.9921499
         7.844176          17.21905          0.8723852
         7.906271          17.57769          0.8111891
         7.968365          16.85567          0.8559251
         8.030458          17.10611          0.9010386
         8.092554          16.94857          0.8498816
         8.154648          15.12896          0.8283956
         8.216742          15.00891          0.9663611
         8.278836          15.45788          0.9351905
         8.340930          15.43797          0.8202450
         8.403025          14.18722          0.8412483
         8.465118          14.17633          0.8390603
         8.527213          16.23149          0.8890861
         8.589307          15.71323          0.8887093
         8.651402          16.73997          0.8474732
         8.713495          16.49623          0.7624687
         8.775590          15.82657          0.7052239
         8.837685          14.60840          0.7339520
         8.899778          13.66905          0.7633669
         8.961872          15.12388          0.6822777
         9.023967          14.13053          0.6283683
         9.086061          13.22001          0.5903006
         9.148155          13.48941          0.6328343
         9.210249          12.32232          0.6430653
         9.272344          13.28631          0.6235024
         9.334438          14.40808          0.5625699
         9.396532          14.37007          0.5498382
         9.458626          13.38222          0.5533423
         9.520720          14.04317          0.5822982
         9.582815          14.33251          0.6352734
         9.644909          14.56823          0.5946714
         9.707003          14.39936          0.6126009
         9.769097          13.70287          0.5920379
         9.831192          14.28166          0.5754769
         9.893286          16.10877          0.5617980
         9.955380          15.92575          0.5646158
         10.01747          14.71657          0.5590166
         10.07957          14.18054          0.6024114
         10.14166          14.09541          0.6360876
         10.20376          15.13460          0.5852994
         10.26585          15.11426          0.6066642
         10.32795          14.96447          0.5891524
         10.39004          14.22101          0.6300406
         10.45213          14.87083          0.6148527
         10.51423          15.23803          0.5696471
         10.57632          14.60857          0.5234918
         10.63842          14.89706          0.5001107
         10.70051          14.61668          0.4880393
         10.76260          14.39333          0.5039814
         10.82470          14.20425          0.5345267
         10.88679          13.47204          0.5318659
         10.94889          14.88191          0.5766776
         11.01098          15.17162          0.6217842
         11.07308          16.08692          0.6105673
         11.13517          17.31940          0.4863626
         11.19726          19.55766          0.5267370
         11.25936          21.60917          0.5516886
         11.32145          21.56665          0.5727383
         11.38355          18.75286          0.6374020
         11.44564          16.84146          0.7755905
         11.50774          15.57646          0.7071021
         11.56983          15.29765          0.7323129
         11.63192          13.41540          0.7348511
         11.69402          13.08558          0.7223073
         11.75611          13.36064          0.7353635
         11.81821          14.27320          0.6267385
         11.88030          14.83084          0.6761711
         11.94240          14.77520          0.5784296
         12.00449          13.50197          0.5870984
         12.06658          13.36050          0.5766124
         12.12868          13.70913          0.5695614
         12.19077          13.06241          0.5064600
         12.25287          13.57734          0.4552622
         12.31496          12.91220          0.5162402
         12.37705          12.55341          0.5559186
         12.43915          12.92867          0.5777547
         12.50124          13.14008          0.4978060
         12.56334          14.18654          0.5424784
         12.62543          13.43842          0.5264258
         12.68753          13.78502          0.5924190
         12.74962          14.63230          0.7309808
         12.81171          14.54151          0.6419558
         12.87381          14.21085          0.6357296
         12.93590          13.27458          0.6395406
         12.99800          12.69478          0.7089700
         13.06009          12.80053          0.7055398
         13.12218          12.64645          0.6592909
         13.18428          10.86276          0.6567397
         13.24637          11.14289          0.6984210
         13.30847          12.59060          0.7887724
         13.37056          12.30159          0.7345794
         13.43266          11.06778          0.6715687
         13.49475          10.22001          0.5480702
         13.55684          10.20895          0.5595981
         13.61894          10.18320          0.5965210
         13.68103          9.676560          0.7147388
         13.74313          10.14660          0.7446501
         13.80522          10.77028          0.6299881
         13.86732          10.19017          0.7012733
         13.92941          9.998504          0.6457129
         13.99150          9.629500          0.6325741
         14.05360          9.113540          0.7031888
         14.11569          9.681020          0.7152333
         14.17779          10.39220          0.8380190
         14.23988          11.33307          0.8971233
         14.30198          9.983757          0.8230487
         14.36407          9.506226          0.8299538
         14.42616          10.63361          0.8892474
         14.48826          9.593163          0.9093091
         14.55035          9.352109          0.8723670
         14.61245          8.889604          0.9406856
         14.67454          8.857274          0.8497639
         14.73664          8.143091          0.7162405
